Path difference [nm]	Intensity [a.u.]
-28944	51.6233
-28896	51.6167
-28848	51.5667
-28800	51.59
-28752	51.6
-28704	51.6
-28656	51.5233
-28608	51.4433
-28560	51.5933
-28512	51.71
-28464	51.72
-28416	51.6
-28368	51.7133
-28320	51.8033
-28272	51.4033
-28224	51.5233
-28176	51.5
-28128	51.3067
-28080	51.2567
-28032	51.5667
-27984	51.4733
-27936	51.41
-27888	51.6333
-27840	51.4567
-27792	51.5533
-27744	51.6467
-27696	51.5033
-27648	51.4567
-27600	51.4967
-27552	51.4667
-27504	51.38
-27456	51.49
-27408	51.6533
-27360	51.62
-27312	51.6467
-27264	51.5333
-27216	51.76
-27168	51.59
-27120	51.6
-27072	51.3633
-27024	51.45
-26976	51.5667
-26928	51.4
-26880	51.45
-26832	51.67
-26784	51.3933
-26736	51.48
-26688	51.4567
-26640	51.64
-26592	51.63
-26544	51.6967
-26496	51.5133
-26448	51.5367
-26400	51.6267
-26352	51.5367
-26304	51.3967
-26256	51.3033
-26208	51.3267
-26160	51.4567
-26112	51.4767
-26064	51.4067
-26016	51.74
-25968	51.5633
-25920	51.71
-25872	51.5333
-25824	51.7933
-25776	51.6
-25728	51.6167
-25680	51.4033
-25632	51.4567
-25584	51.3967
-25536	51.35
-25488	51.38
-25440	51.45
-25392	51.4567
-25344	51.4067
-25296	51.5633
-25248	51.4833
-25200	51.3667
-25152	51.46
-25104	51.5267
-25056	51.46
-25008	51.6033
-24960	51.4
-24912	51.4733
-24864	51.5967
-24816	51.4267
-24768	51.28
-24720	51.2867
-24672	51.2867
-24624	51.3533
-24576	51.46
-24528	51.2733
-24480	51.4233
-24432	51.6067
-24384	51.6133
-24336	51.5767
-24288	51.7833
-24240	51.29
-24192	51.55
-24144	51.7033
-24096	51.26
-24048	51.37
-24000	51.4067
-23952	51.2933
-23904	51.3767
-23856	51.4367
-23808	51.45
-23760	51.5567
-23712	51.9
-23664	51.61
-23616	51.6267
-23568	51.4867
-23520	51.5133
-23472	51.4133
-23424	51.4267
-23376	51.2133
-23328	51.38
-23280	51.4967
-23232	51.3667
-23184	51.52
-23136	51.8067
-23088	51.63
-23040	51.7267
-22992	51.58
-22944	51.4433
-22896	51.4633
-22848	51.4233
-22800	51.36
-22752	51.2133
-22704	51.4967
-22656	51.3933
-22608	51.4467
-22560	51.4033
-22512	51.5833
-22464	51.7067
-22416	51.5933
-22368	51.5267
-22320	51.19
-22272	51.63
-22224	51.65
-22176	51.5267
-22128	51.17
-22080	51.3067
-22032	51.2767
-21984	51.1933
-21936	51.46
-21888	51.37
-21840	51.4533
-21792	51.5867
-21744	51.5333
-21696	51.36
-21648	51.4833
-21600	51.3333
-21552	51.4567
-21504	51.6167
-21456	51.4233
-21408	51.2867
-21360	51.3033
-21312	51.2633
-21264	51.4633
-21216	51.4633
-21168	51.5233
-21120	51.3633
-21072	51.4433
-21024	51.68
-20976	51.53
-20928	51.5567
-20880	51.4667
-20832	51.34
-20784	51.2267
-20736	51.3633
-20688	51.24
-20640	51.3767
-20592	51.43
-20544	51.2833
-20496	51.4467
-20448	51.2733
-20400	51.5267
-20352	51.51
-20304	51.8433
-20256	51.5767
-20208	51.6
-20160	51.37
-20112	51.4333
-20064	51.3833
-20016	51.32
-19968	51.5567
-19920	51.33
-19872	51.18
-19824	51.2233
-19776	51.52
-19728	51.41
-19680	51.3067
-19632	51.4267
-19584	51.4333
-19536	51.5067
-19488	51.5533
-19440	51.5667
-19392	51.4867
-19344	51.4567
-19296	51.4867
-19248	51.3467
-19200	51.09
-19152	51.2667
-19104	51.4667
-19056	51.5233
-19008	51.33
-18960	51.2733
-18912	51.46
-18864	51.45
-18816	51.5267
-18768	51.3733
-18720	51.4867
-18672	51.37
-18624	51.34
-18576	51.2233
-18528	51.37
-18480	51.3133
-18432	51.3033
-18384	51.4333
-18336	51.4467
-18288	51.47
-18240	51.5567
-18192	51.51
-18144	51.4567
-18096	51.5367
-18048	51.35
-18000	51.1967
-17952	51.4433
-17904	51.1467
-17856	51.3667
-17808	51.35
-17760	51.5033
-17712	51.34
-17664	51.4133
-17616	51.4233
-17568	51.59
-17520	51.3733
-17472	51.4467
-17424	51.46
-17376	51.5133
-17328	51.4667
-17280	51.36
-17232	51.26
-17184	51.1667
-17136	51.1767
-17088	51.1167
-17040	51.2433
-16992	51.3567
-16944	51.3967
-16896	51.36
-16848	51.44
-16800	51.6967
-16752	51.23
-16704	51.5333
-16656	51.3833
-16608	51.3167
-16560	51.3433
-16512	51.34
-16464	51.3067
-16416	51.4533
-16368	51.3667
-16320	51.2467
-16272	51.5667
-16224	51.3467
-16176	51.3067
-16128	51.47
-16080	51.2867
-16032	51.42
-15984	51.47
-15936	51.5033
-15888	51.42
-15840	51.32
-15792	51.4267
-15744	51.3267
-15696	51.1333
-15648	51.1533
-15600	51.3033
-15552	51.35
-15504	51.21
-15456	51.5633
-15408	51.4867
-15360	51.7167
-15312	51.7067
-15264	51.3733
-15216	51.3167
-15168	51.3533
-15120	51.2033
-15072	51.29
-15024	51.42
-14976	51.4067
-14928	51.5067
-14880	51.6033
-14832	51.3367
-14784	51.5267
-14736	51.3967
-14688	51.3133
-14640	51.2367
-14592	51.2233
-14544	51.4767
-14496	51.4333
-14448	51.58
-14400	51.53
-14352	51.6067
-14304	51.3233
-14256	51.3467
-14208	51.0133
-14160	51.18
-14112	51.3067
-14064	51.2467
-14016	51.5667
-13968	51.47
-13920	51.7633
-13872	51.6633
-13824	51.4833
-13776	51.1667
-13728	50.9733
-13680	51.0733
-13632	51.01
-13584	51.2233
-13536	51.4967
-13488	51.4667
-13440	51.48
-13392	51.8233
-13344	51.4867
-13296	51.4633
-13248	51.2167
-13200	51.1967
-13152	51.0967
-13104	51.2267
-13056	51.2233
-13008	51.57
-12960	51.7167
-12912	51.7
-12864	51.49
-12816	51.1633
-12768	51.2633
-12720	50.9867
-12672	50.9133
-12624	51.26
-12576	51.6567
-12528	51.7367
-12480	51.7
-12432	51.5833
-12384	51.31
-12336	51.13
-12288	50.89
-12240	51.0333
-12192	50.9767
-12144	51.39
-12096	51.7
-12048	51.9133
-12000	51.8467
-11952	51.3567
-11904	51.49
-11856	51.3033
-11808	50.79
-11760	50.8167
-11712	50.9533
-11664	51.4
-11616	51.6267
-11568	51.8867
-11520	52.2467
-11472	51.9367
-11424	51.23
-11376	50.8733
-11328	50.7733
-11280	50.8967
-11232	50.97
-11184	51.4467
-11136	51.8267
-11088	52.0733
-11040	51.76
-10992	51.6233
-10944	51.0467
-10896	51.1067
-10848	50.6667
-10800	51.1233
-10752	51.5633
-10704	51.8567
-10656	51.8233
-10608	51.89
-10560	51.77
-10512	50.9867
-10464	50.7867
-10416	50.65
-10368	50.5467
-10320	50.59
-10272	51.0233
-10224	51.8733
-10176	52.1167
-10128	52.0867
-10080	51.6933
-10032	51.2733
-9984	50.63
-9936	50.45
-9888	50.51
-9840	50.9967
-9792	51.8267
-9744	51.67
-9696	52.2533
-9648	52.37
-9600	51.5633
-9552	51.2867
-9504	50.6467
-9456	50.2167
-9408	50.3633
-9360	50.6633
-9312	51.2067
-9264	52.2067
-9216	52.41
-9168	52.4233
-9120	52.0267
-9072	51.07
-9024	50.3867
-8976	50.2433
-8928	50.53
-8880	51.4567
-8832	51.5667
-8784	52.26
-8736	52.3967
-8688	51.8
-8640	51.2033
-8592	50.54
-8544	50.04
-8496	50.3
-8448	50.4133
-8400	51.36
-8352	52.4367
-8304	52.77
-8256	52.49
-8208	52.1933
-8160	51.1867
-8112	50.0333
-8064	49.6367
-8016	50.17
-7968	51.19
-7920	51.7667
-7872	52.3567
-7824	53.06
-7776	52.59
-7728	50.9067
-7680	50.43
-7632	49.7033
-7584	49.7167
-7536	50.2733
-7488	50.77
-7440	51.7733
-7392	53.03
-7344	52.8867
-7296	52.1267
-7248	51.3667
-7200	50.5133
-7152	49.7133
-7104	49.9233
-7056	50.3933
-7008	52.0733
-6960	53.3133
-6912	53.45
-6864	53.39
-6816	52.6867
-6768	50.4633
-6720	49.23
-6672	48.9433
-6624	49.16
-6576	51.0867
-6528	51.58
-6480	52.9733
-6432	53.8233
-6384	53.07
-6336	51.4967
-6288	49.71
-6240	48.67
-6192	48.6567
-6144	49.4133
-6096	50.4767
-6048	52.76
-6000	54.22
-5952	54
-5904	52.5567
-5856	51.9733
-5808	49.6033
-5760	48.64
-5712	48.5867
-5664	50.3833
-5616	53.2733
-5568	54.2833
-5520	54.7167
-5472	54.3767
-5424	52.0633
-5376	49.0333
-5328	47.7333
-5280	47.7533
-5232	49.0267
-5184	51.38
-5136	53.6767
-5088	55.0733
-5040	54.6467
-4992	53.27
-4944	50.3733
-4896	48.78
-4848	46.68
-4800	47.11
-4752	49.6133
-4704	52.2
-4656	55.9167
-4608	56.23
-4560	56.0667
-4512	53.96
-4464	49.7867
-4416	46.3533
-4368	45.8467
-4320	48.39
-4272	51.23
-4224	54.4833
-4176	55.7
-4128	56.7633
-4080	53.2267
-4032	50.3733
-3984	48.9633
-3936	45.8167
-3888	45.5167
-3840	49.57
-3792	53.0633
-3744	56.7433
-3696	58.3033
-3648	57.7633
-3600	56.7133
-3552	52.08
-3504	45.13
-3456	43.86
-3408	45.7867
-3360	50.1467
-3312	56.1133
-3264	59.41
-3216	59.6433
-3168	57.7167
-3120	49.8467
-3072	46.58
-3024	43.6833
-2976	42.8267
-2928	49.7133
-2880	53.0633
-2832	57.8333
-2784	60.8833
-2736	59.83
-2688	56.5233
-2640	49.9433
-2592	43.0733
-2544	40.8333
-2496	42.3033
-2448	45.07
-2400	51.6033
-2352	61.14
-2304	61.8767
-2256	60
-2208	51.8267
-2160	44.87
-2112	41.8833
-2064	39.5533
-2016	43.9833
-1968	51.96
-1920	58.86
-1872	61.9133
-1824	63.0767
-1776	56.94
-1728	49.0033
-1680	41.3233
-1632	37.69
-1584	38.6367
-1536	42.8467
-1488	50.55
-1440	63.7533
-1392	65.27
-1344	61.4533
-1296	53.0867
-1248	47.45
-1200	40.46
-1152	36.12
-1104	43.9233
-1056	57.4633
-1008	66.0233
-960	66.2967
-912	66.7533
-864	62.64
-816	55.6267
-768	42.13
-720	36.38
-672	34.9667
-624	40.05
-576	50.5233
-528	63.59
-480	68.0367
-432	64.3067
-384	59.5067
-336	55.8833
-288	43.7267
-240	34.49
-192	37.6567
-144	46.4
-96	58.04
-48	64.9633
0	67.5333
48	67.3967
96	56.0067
144	45.92
192	36.25
240	34.3167
288	34.32
336	41.39
384	54.42
432	66.07
480	68.26
528	65.74
576	55.6267
624	48.3533
672	38.87
720	35.4367
768	41.3667
816	48.9467
864	54.06
912	64.8033
960	67.5367
1008	60.4733
1056	51.5133
1104	37.6467
1152	35.5667
1200	35.51
1248	40.1
1296	52.37
1344	64.58
1392	66.19
1440	62.4933
1488	58.08
1536	45.64
1584	41.23
1632	37.06
1680	42.61
1728	49.8267
1776	52.4633
1824	59.39
1872	64.34
1920	62.1033
1968	54.7967
2016	48.6767
2064	38.8333
2112	40.3067
2160	42.45
2208	52.0133
2256	60.72
2304	62.6667
2352	61.8467
2400	55.5033
2448	51.24
2496	45.5433
2544	40.82
2592	41.4933
2640	50.2333
2688	54.82
2736	58.8133
2784	61.2667
2832	59.8467
2880	53.5933
2928	48.3933
2976	43.7267
3024	42.05
3072	43.6733
3120	47.0233
3168	53.5067
3216	59.4967
3264	59.27
3312	57.36
3360	51.7433
3408	47.38
3456	43.98
3504	43.4767
3552	45.9067
3600	54.3967
3648	57.4333
3696	58.1567
3744	58.0367
3792	56.0933
3840	49.86
3888	46.2133
3936	44.4333
3984	45.9833
4032	49.2433
4080	50.0067
4128	54.9367
4176	57.5567
4224	54.84
4272	53.22
4320	48.0633
4368	46.5233
4416	45.7033
4464	46.4
4512	49.5467
4560	54.8433
4608	55.97
4656	56.5767
4704	56.04
4752	53.9133
4800	50.53
4848	46.83
4896	46.78
4944	49.26
4992	50.4567
5040	50.8833
5088	54.0467
5136	55.5833
5184	53.5567
5232	51.8367
5280	47.35
5328	47.4933
5376	50.2767
5424	51.36
5472	51.99
5520	54.2867
5568	54.43
5616	55.0967
5664	54.9733
5712	53.7067
5760	51.43
5808	48.61
5856	47.9467
5904	49.7667
5952	51.4067
6000	51.8733
6048	53.93
6096	54.5567
6144	53.4833
6192	52.17
6240	49.8767
6288	49.1133
6336	48.6167
6384	49.2167
6432	50.9333
6480	53.68
6528	53.9033
6576	53.84
6624	53.48
6672	52.1967
6720	50.3733
6768	48.74
6816	49.0633
6864	51.2133
6912	52.12
6960	52.5367
7008	53.4467
7056	53.27
7104	52.1467
7152	50.67
7200	49.2133
7248	49.0633
7296	49.83
7344	50.45
7392	51.9033
7440	53.1733
7488	53.2733
7536	52.8433
7584	51.7933
7632	50.59
7680	49.7
7728	49.46
7776	50.29
7824	51.57
7872	52.6767
7920	52.95
7968	53.02
8016	52.6133
8064	51.6467
8112	50.27
8160	49.58
8208	50.2667
8256	50.6633
8304	51.5033
8352	52.43
8400	52.6667
8448	52.3967
8496	51.8533
8544	50.6333
8592	50.0867
8640	49.7533
8688	50.2933
8736	51.03
8784	51.93
8832	52.2067
8880	52.6
8928	52.28
8976	51.1
9024	50.6533
9072	50.3267
9120	50.0133
9168	50
9216	51.5933
9264	51.85
9312	52.1233
9360	52.27
9408	51.8167
9456	51.6033
9504	50.99
9552	50.64
9600	50.49
9648	50.46
9696	51.4233
9744	52.1167
9792	52.1833
9840	52.2333
9888	51.8133
9936	51.2267
9984	50.4167
10032	50.2433
10080	50.52
10128	51.0267
10176	51.5667
10224	52.0467
10272	52.2967
10320	51.6333
10368	51.2833
10416	50.71
10464	50.6233
10512	50.6033
10560	50.6567
10608	50.9867
10656	52.0167
10704	51.9333
10752	51.7733
10800	51.5367
10848	51.2333
10896	51.07
10944	50.55
10992	50.76
11040	51.3267
11088	51.7067
11136	52
11184	51.9367
11232	51.6733
11280	51.29
11328	50.7467
11376	50.7167
11424	50.7733
11472	51.05
11520	51.33
11568	51.41
11616	51.81
11664	52.0733
11712	51.79
11760	51.18
11808	50.8433
11856	50.8167
11904	50.8533
11952	50.7733
12000	51.32
12048	51.5033
12096	51.4833
12144	51.6933
12192	51.2333
12240	51.1633
12288	50.8333
12336	50.83
12384	51.0833
12432	51.33
12480	51.72
12528	51.6167
12576	51.7567
12624	51.6933
12672	51.3067
12720	51.0667
12768	50.8533
12816	50.8533
12864	51.0467
12912	51.3567
12960	51.2833
13008	51.79
13056	51.7833
13104	51.65
13152	51.1033
13200	51.0167
13248	50.9267
13296	50.8367
13344	51.15
13392	51.2633
13440	51.4533
13488	51.6333
13536	51.4033
13584	51.27
13632	51.0367
13680	51.2033
13728	51.0533
13776	51.1333
13824	51.2933
13872	51.2067
13920	51.44
13968	51.2633
14016	51.3433
14064	51.2067
14112	51.18
14160	51.1167
14208	51.06
14256	51.1567
14304	51.1067
14352	51.5667
14400	51.2667
14448	51.35
14496	51.2467
14544	51.2833
14592	51.1767
14640	51.29
14688	51.18
14736	51.0533
14784	51.0167
14832	51.3667
14880	51.33
14928	51.37
14976	51.2567
15024	51.3833
15072	51.4667
15120	51.2067
15168	51.2633
15216	51.23
15264	51.1333
15312	51.1467
15360	51.2367
15408	51.14
15456	51.3633
15504	51.2433
15552	51.3033
15600	51.36
15648	51.3633
15696	51.4733
15744	51.2133
15792	51.2367
15840	51.3633
15888	51.17
15936	51.4267
15984	51.1533
16032	51.1833
16080	51.1267
16128	51.37
16176	50.92
16224	51.2867
16272	51.38
16320	51.2033
16368	51.5533
16416	51.5533
16464	51.45
16512	51.03
16560	51.1033
16608	50.8733
16656	51.1867
16704	51.22
16752	51.2833
16800	51.2933
16848	51.25
16896	51.6233
16944	51.5467
16992	51.25
17040	51.2833
17088	51.1933
17136	50.9567
17184	50.9667
17232	51.0267
17280	51.2567
17328	51.3767
17376	51.3467
17424	51.1033
17472	51.3433
17520	51.3033
17568	51.4
17616	51.1933
17664	51.1333
17712	51.2767
17760	51.5933
17808	51.3767
17856	51.27
17904	51.27
17952	51.22
18000	51.09
18048	50.9367
18096	51.38
18144	51.2967
18192	51.49
18240	51.27
18288	51.4033
18336	51.3033
18384	51.2167
18432	51.07
18480	51.0633
18528	50.97
18576	51.0233
18624	51.09
18672	51.4
18720	51.45
18768	51.4733
18816	51.6067
18864	51.6867
18912	51.4333
18960	51.1433
19008	51.08
19056	50.89
19104	51.24
19152	51.3333
19200	51.08
19248	51.1867
19296	51.25
19344	51.3133
19392	51.05
19440	51.0333
19488	51.2833
19536	51.1267
19584	51.55
19632	51.42
19680	51.42
19728	51.2967
19776	51.4567
19824	51.3833
19872	51.23
19920	51.16
19968	51.0333
20016	50.92
20064	51.22
20112	51.4433
20160	51.4933
20208	51.3833
20256	51.3067
20304	51.1167
20352	51.2567
20400	51.1433
20448	51.2867
20496	51.32
20544	51.33
20592	51.43
20640	51.1767
20688	51.1767
20736	51.4233
20784	50.91
20832	50.9367
20880	50.9667
20928	51.33
20976	51.2367
21024	51.16
21072	51.4867
21120	51.65
21168	51.5067
21216	51.25
21264	51.1967
21312	51.0267
21360	50.9467
21408	51.1567
21456	51.1067
21504	51.3367
21552	51.41
21600	51.4933
21648	51.3533
21696	51.2533
21744	51.3433
21792	51.3033
21840	51.2667
21888	51.4533
21936	51.4667
21984	51.39
22032	51.4233
22080	51.1767
22128	51.2667
22176	51
22224	51.0867
22272	51.2133
22320	51.1867
22368	51.1533
22416	51.6967
22464	51.6767
22512	51.1933
22560	51.3867
22608	51.2933
22656	50.9567
22704	50.9333
22752	51.23
22800	51.1533
22848	50.9567
22896	51.33
22944	51.4433
22992	51.24
23040	51.3733
23088	51.1567
23136	51.2067
23184	51.3167
23232	51.1833
23280	51.3733
23328	51.3433
23376	51.2833
23424	51.1067
23472	51.2867
23520	51.0733
23568	51.04
23616	51.16
23664	51.22
23712	50.92
23760	51.38
23808	51.4533
23856	51.4433
23904	51.3033
23952	51.1367
24000	51.1333
24048	51.23
24096	51.0567
24144	50.9833
24192	51.1667
