Path difference [nm]	Intensity [a.u.]
-36912	13.1733
-36864	13.0933
-36816	10.5133
-36768	12.0033
-36720	11.7967
-36672	13.37
-36624	10.17
-36576	12.6267
-36528	14.6433
-36480	11.0333
-36432	11.7667
-36384	12.2367
-36336	13.37
-36288	14.4467
-36240	15.33
-36192	13.1833
-36144	14.3533
-36096	12.13
-36048	11.4767
-36000	13.1367
-35952	14.6467
-35904	13.6033
-35856	11.0267
-35808	12.3333
-35760	11.8467
-35712	14.7767
-35664	11.5733
-35616	11.2833
-35568	13.7233
-35520	12.58
-35472	12.15
-35424	13.43
-35376	13.7467
-35328	13.8867
-35280	12.7567
-35232	15.3633
-35184	10.6233
-35136	13.08
-35088	10.5167
-35040	13.6567
-34992	12.9433
-34944	14.1867
-34896	13.8033
-34848	13.0567
-34800	12.78
-34752	10.1167
-34704	13.26
-34656	11.8733
-34608	14.9433
-34560	11.5233
-34512	12.2333
-34464	14.6667
-34416	10.4267
-34368	11.34
-34320	10.17
-34272	14.5233
-34224	13.87
-34176	10.89
-34128	12.1967
-34080	11.9767
-34032	13.7833
-33984	13.9667
-33936	12.8967
-33888	11.8333
-33840	13.8433
-33792	13.3467
-33744	12.3
-33696	12.24
-33648	14.0367
-33600	12.6467
-33552	10.68
-33504	11.5467
-33456	12.7933
-33408	13.17
-33360	12.4333
-33312	9.8067
-33264	13.11
-33216	12.01
-33168	13.9867
-33120	14.33
-33072	11.63
-33024	13.4767
-32976	13.8333
-32928	15.4333
-32880	14.0167
-32832	12.8667
-32784	11.0433
-32736	12.3367
-32688	14.8033
-32640	15.4367
-32592	15.5133
-32544	14.65
-32496	13.36
-32448	11.54
-32400	9.92
-32352	13.8533
-32304	13.9367
-32256	12.64
-32208	12.3833
-32160	11.78
-32112	14.73
-32064	13.5633
-32016	15.0867
-31968	11.7033
-31920	15.7667
-31872	13.8033
-31824	14.6
-31776	11.6967
-31728	13.1333
-31680	14.6067
-31632	11.36
-31584	12.9967
-31536	14.28
-31488	14.2867
-31440	12.42
-31392	14.2433
-31344	13.08
-31296	11.5867
-31248	12.7933
-31200	14.3233
-31152	10.7367
-31104	11.9867
-31056	12.3667
-31008	14.0933
-30960	14.94
-30912	10.4767
-30864	12.9033
-30816	14.4667
-30768	13.0633
-30720	11.8
-30672	13.1633
-30624	12.1133
-30576	9
-30528	11.7933
-30480	15.0167
-30432	13.7567
-30384	12.9633
-30336	10.19
-30288	12.89
-30240	13.13
-30192	14.93
-30144	12.0833
-30096	11.0333
-30048	8.8767
-30000	10.8267
-29952	12.2767
-29904	13.2233
-29856	10.27
-29808	11.4533
-29760	13.65
-29712	12.9633
-29664	12.3067
-29616	13.3133
-29568	9.8467
-29520	11.97
-29472	11.5667
-29424	13.0967
-29376	12.2767
-29328	11.27
-29280	11.6233
-29232	11.8633
-29184	14.32
-29136	13.9833
-29088	14.58
-29040	13.2933
-28992	13.5
-28944	15.4433
-28896	15.56
-28848	13.33
-28800	14.6067
-28752	11.4733
-28704	9.9167
-28656	11.74
-28608	13.7
-28560	15.3633
-28512	14.33
-28464	12.9767
-28416	9.9133
-28368	10.75
-28320	11.8667
-28272	10.8167
-28224	10.5633
-28176	16.5733
-28128	12.01
-28080	12.7667
-28032	14.21
-27984	10.9067
-27936	9.58
-27888	13.99
-27840	12.8933
-27792	10.7233
-27744	13.2
-27696	13.6567
-27648	14
-27600	11.37
-27552	11.41
-27504	11.7133
-27456	8.1467
-27408	12.8267
-27360	12.0067
-27312	13.8133
-27264	12.5033
-27216	11.78
-27168	12.2133
-27120	10.5367
-27072	12.4133
-27024	11.6167
-26976	10.7133
-26928	9.0933
-26880	12.2333
-26832	13.25
-26784	13.6833
-26736	13.66
-26688	14.55
-26640	12.3567
-26592	11.1433
-26544	14.5733
-26496	12.58
-26448	11.97
-26400	10.2267
-26352	12.9167
-26304	13.58
-26256	12.4867
-26208	13.7133
-26160	13.2533
-26112	13.5133
-26064	11.7033
-26016	11.9233
-25968	15.34
-25920	13.49
-25872	11.3033
-25824	12.7967
-25776	13.07
-25728	15.5367
-25680	12.7933
-25632	14.0567
-25584	13.0633
-25536	11.44
-25488	14.9567
-25440	11.15
-25392	13.4133
-25344	12.62
-25296	12.31
-25248	14.24
-25200	13.3467
-25152	15.1333
-25104	12.4067
-25056	12.4067
-25008	9.4767
-24960	12.6067
-24912	10.4867
-24864	12.5167
-24816	9.42
-24768	11.3067
-24720	13.1167
-24672	9.5367
-24624	12.4467
-24576	13.59
-24528	12.0167
-24480	11.32
-24432	10.34
-24384	10.67
-24336	13.2733
-24288	11.04
-24240	13.8467
-24192	11.6533
-24144	11.9267
-24096	11.6067
-24048	10.4433
-24000	12.45
-23952	13.46
-23904	9.29
-23856	10.1567
-23808	14.14
-23760	12.2067
-23712	11.7533
-23664	13.66
-23616	11.6267
-23568	14.1833
-23520	13.42
-23472	13.0367
-23424	13.3933
-23376	10.5767
-23328	11.2367
-23280	13.0533
-23232	11.8133
-23184	13.6433
-23136	14.5467
-23088	10.9167
-23040	11.5467
-22992	10.9867
-22944	12.84
-22896	12.9333
-22848	13.4833
-22800	13.4033
-22752	12.2267
-22704	14.1767
-22656	14.14
-22608	9.4767
-22560	14.3033
-22512	12.2433
-22464	15.77
-22416	14.0133
-22368	10.8367
-22320	12.11
-22272	11.5067
-22224	12.27
-22176	10.5833
-22128	16.22
-22080	13.16
-22032	15.2067
-21984	13.7967
-21936	14.5167
-21888	13.93
-21840	12.7567
-21792	14.8367
-21744	14.2467
-21696	13.76
-21648	13.86
-21600	13.1467
-21552	15.1333
-21504	13.8267
-21456	13.95
-21408	12.5967
-21360	12.72
-21312	14.7633
-21264	11.5333
-21216	8.8433
-21168	14.0533
-21120	12.94
-21072	13.3433
-21024	13.1733
-20976	13.78
-20928	14.26
-20880	14.58
-20832	12.3767
-20784	14.03
-20736	15.2033
-20688	14.5867
-20640	12.0667
-20592	14.1267
-20544	17.14
-20496	14.5733
-20448	14.58
-20400	12.2667
-20352	14.09
-20304	11.5633
-20256	13.7067
-20208	15.88
-20160	13.4467
-20112	10.2433
-20064	13.8167
-20016	13.3433
-19968	12.1433
-19920	14.4333
-19872	13.2933
-19824	14.5733
-19776	15.2833
-19728	13.1133
-19680	13.2367
-19632	14.5267
-19584	11.78
-19536	11.81
-19488	15.53
-19440	10.8633
-19392	10.42
-19344	10.26
-19296	8.9233
-19248	14.51
-19200	12.28
-19152	13.86
-19104	10.22
-19056	10.4667
-19008	10.5033
-18960	11.0767
-18912	13.24
-18864	13.04
-18816	11.6467
-18768	11.6333
-18720	12.9833
-18672	12.0933
-18624	11.8667
-18576	14.2967
-18528	14.7833
-18480	14.34
-18432	11.35
-18384	14.6067
-18336	12.55
-18288	12.35
-18240	11.9067
-18192	13.04
-18144	12.8767
-18096	15.61
-18048	12.97
-18000	11.7967
-17952	12.35
-17904	11.0967
-17856	11.1867
-17808	11.2567
-17760	14.4567
-17712	17.0433
-17664	12.1367
-17616	12.8533
-17568	13.6133
-17520	10.59
-17472	12.04
-17424	13.23
-17376	13.24
-17328	13.0067
-17280	13.67
-17232	11.59
-17184	13.8967
-17136	13.3267
-17088	13.6233
-17040	10.3067
-16992	13.4933
-16944	11.26
-16896	13.8967
-16848	13.81
-16800	11.24
-16752	9.8367
-16704	14.7767
-16656	12.7967
-16608	13.2967
-16560	11.6267
-16512	12.4
-16464	13.61
-16416	11.5033
-16368	12.76
-16320	10.53
-16272	11.73
-16224	13.2833
-16176	12.81
-16128	13.82
-16080	13.8033
-16032	12.0633
-15984	13.04
-15936	13.8233
-15888	11.4
-15840	11.92
-15792	10.98
-15744	11.3933
-15696	12.08
-15648	10.9933
-15600	11.6867
-15552	12.1633
-15504	10.8367
-15456	12.7167
-15408	12.3667
-15360	12.0833
-15312	10.0467
-15264	14.3367
-15216	11.07
-15168	11.16
-15120	11.8067
-15072	13.05
-15024	13.8367
-14976	11.2867
-14928	11.5567
-14880	11.9433
-14832	14.33
-14784	9.65
-14736	13.46
-14688	14.46
-14640	11.9967
-14592	13.2333
-14544	12.1467
-14496	11.5667
-14448	13.54
-14400	11.0933
-14352	11.85
-14304	11.9567
-14256	12.3633
-14208	12.2467
-14160	11.7667
-14112	11.5
-14064	13
-14016	13.7933
-13968	13.33
-13920	14.6967
-13872	11.2067
-13824	12.79
-13776	11.03
-13728	14.4867
-13680	10.2567
-13632	10.6967
-13584	12.9633
-13536	12.7267
-13488	11.2833
-13440	11.54
-13392	11.43
-13344	13.1067
-13296	12.6333
-13248	12.5267
-13200	11.8767
-13152	14.77
-13104	13.9733
-13056	12.0067
-13008	10.8567
-12960	7.1833
-12912	13.3
-12864	10.49
-12816	13.16
-12768	11.85
-12720	7.2033
-12672	10.0533
-12624	12.43
-12576	8.0633
-12528	10.17
-12480	10.5367
-12432	9.4633
-12384	9.69
-12336	8.8267
-12288	9.2833
-12240	10.39
-12192	12.6967
-12144	9.7967
-12096	11.3567
-12048	10.2267
-12000	10.0767
-11952	9.84
-11904	14.7767
-11856	10.1567
-11808	13.8733
-11760	12.1133
-11712	14.2533
-11664	12.5267
-11616	11.0567
-11568	14.6567
-11520	12.9933
-11472	15.9533
-11424	13.7867
-11376	10.8633
-11328	13.5333
-11280	10.5267
-11232	10.6733
-11184	11.81
-11136	12.11
-11088	10.4533
-11040	11.0633
-10992	12.0333
-10944	12.7533
-10896	13.59
-10848	11.8667
-10800	12.37
-10752	10.6033
-10704	11.2067
-10656	12.0533
-10608	14.75
-10560	10.9833
-10512	11.2433
-10464	11.2667
-10416	12.7767
-10368	11.4367
-10320	12.17
-10272	9.4767
-10224	11.97
-10176	10.2767
-10128	11.7933
-10080	13.49
-10032	11.5167
-9984	9.94
-9936	10.9867
-9888	13.22
-9840	11.8467
-9792	12.9333
-9744	11.6333
-9696	9.9367
-9648	10.2567
-9600	11.54
-9552	12.94
-9504	11.0467
-9456	11.75
-9408	11.1167
-9360	11.2567
-9312	11.3067
-9264	9.7633
-9216	11.4533
-9168	12.0533
-9120	9.1433
-9072	12.6233
-9024	11.0433
-8976	11.2833
-8928	12.1133
-8880	12.44
-8832	14.4767
-8784	11.3633
-8736	14.72
-8688	12.48
-8640	11.92
-8592	11.2767
-8544	12.2
-8496	12.7633
-8448	14.8633
-8400	13.19
-8352	13.4433
-8304	13.09
-8256	11.9133
-8208	12.1867
-8160	12.1
-8112	10.0667
-8064	12.51
-8016	13.0133
-7968	12.8567
-7920	12.3733
-7872	12.38
-7824	12.5167
-7776	12.6833
-7728	12.5733
-7680	10.61
-7632	9.3233
-7584	8.65
-7536	11.1667
-7488	12.51
-7440	9.0367
-7392	9.56
-7344	10.7267
-7296	12.6833
-7248	8.7467
-7200	11.05
-7152	12.1467
-7104	9.5133
-7056	12.97
-7008	11.1967
-6960	8.7633
-6912	10.75
-6864	11.7633
-6816	11.51
-6768	9.8933
-6720	11.46
-6672	9.1167
-6624	10.5633
-6576	11.22
-6528	11.34
-6480	11.5167
-6432	12.0033
-6384	10.3667
-6336	11.2333
-6288	9.5067
-6240	10.7467
-6192	11.0833
-6144	11.5267
-6096	10.9033
-6048	10.7033
-6000	9.5867
-5952	11.0767
-5904	8.9833
-5856	10.18
-5808	10.03
-5760	9.9667
-5712	12.1467
-5664	10.9767
-5616	11.4367
-5568	11.1167
-5520	10.59
-5472	13.56
-5424	10
-5376	11.5967
-5328	10.1667
-5280	10.7267
-5232	7.62
-5184	9.5967
-5136	9.1667
-5088	12.5033
-5040	9.4833
-4992	12.06
-4944	13.7667
-4896	12.84
-4848	13.0367
-4800	13.23
-4752	12.7267
-4704	10.6633
-4656	8.6067
-4608	9.5067
-4560	12.5167
-4512	14.2967
-4464	12.37
-4416	12.47
-4368	12.54
-4320	14.5067
-4272	11.37
-4224	12.3867
-4176	12.2567
-4128	10.7767
-4080	10.4367
-4032	10.79
-3984	10.6333
-3936	12.8233
-3888	12.6433
-3840	10.1467
-3792	11.5533
-3744	12.4533
-3696	12.8233
-3648	17.0633
-3600	11.68
-3552	12.36
-3504	10.3433
-3456	10.2767
-3408	10.0633
-3360	12.7067
-3312	9.36
-3264	10.73
-3216	12.4233
-3168	15.74
-3120	10.21
-3072	14.3
-3024	12.6867
-2976	9.18
-2928	6.26
-2880	10.8933
-2832	11.2067
-2784	12.2033
-2736	13.1533
-2688	16.2133
-2640	14.3567
-2592	13.4133
-2544	12.8167
-2496	11.6633
-2448	13.23
-2400	14.78
-2352	10.43
-2304	12.6467
-2256	13.5567
-2208	12.75
-2160	12.7667
-2112	10.8067
-2064	14.0067
-2016	10.1167
-1968	10.3033
-1920	13.7033
-1872	11.4767
-1824	16.72
-1776	16.3433
-1728	15.74
-1680	14.8167
-1632	13.6667
-1584	14.7
-1536	11.5733
-1488	9.6067
-1440	8.5167
-1392	11.9667
-1344	13.5767
-1296	16.7867
-1248	17.6833
-1200	18.74
-1152	18.11
-1104	16.17
-1056	13.38
-1008	13.75
-960	11.3133
-912	9.96
-864	5.53
-816	8.0833
-768	11.3
-720	10.23
-672	19.4833
-624	22.4233
-576	20.46
-528	22.11
-480	20.49
-432	17.2733
-384	8.6433
-336	4.0367
-288	0.57
-240	2.8967
-192	6.61
-144	10.6967
-96	18.49
-48	23.2367
0	27.9267
48	26.6133
96	24.1867
144	11.4067
192	7.3967
240	5.26
288	1.4533
336	3.0167
384	3.48
432	10.78
480	14.53
528	19.37
576	22.91
624	20.8767
672	18.1633
720	14.1467
768	11.83
816	5.29
864	8.6367
912	6.59
960	7.63
1008	11.5867
1056	14.38
1104	18.2967
1152	17.8
1200	19.16
1248	16.9633
1296	16.4167
1344	15.4533
1392	12.35
1440	13.4267
1488	9.98
1536	11.0933
1584	10.4
1632	12.3833
1680	14.5533
1728	17.14
1776	14.22
1824	15.7767
1872	12.63
1920	13.3
1968	15.9633
2016	12.8833
2064	11.6533
2112	13.8833
2160	16.23
2208	13.7167
2256	13.4233
2304	13.3667
2352	12.97
2400	11.76
2448	14.6467
2496	11.24
2544	12.1333
2592	12.5467
2640	16.7333
2688	16.95
2736	15.5333
2784	16.9167
2832	12.12
2880	11.5567
2928	10.4367
2976	12.4433
3024	12.2767
3072	12.8367
3120	11.8367
3168	16.75
3216	17.1767
3264	15.8633
3312	13.5533
3360	12.1633
3408	9.1967
3456	12.8767
3504	13.55
3552	15.3667
3600	14.2633
3648	12.8467
3696	14.39
3744	14.69
3792	12.4167
3840	12.8033
3888	13.2333
3936	11.61
3984	13.9633
4032	14.1133
4080	12.78
4128	13.9233
4176	12.25
4224	12.05
4272	13.9867
4320	14.48
4368	16.63
4416	13.5533
4464	13.6033
4512	14.04
4560	14.3467
4608	10.3267
4656	13.13
4704	13.3867
4752	11.7167
4800	13.26
4848	16.1
4896	15
4944	15.4733
4992	13.5167
5040	11.0767
5088	12.6567
5136	10.0267
5184	12.75
5232	12.4367
5280	13.52
5328	11.9133
5376	11.8067
5424	16.3933
5472	16.5267
5520	11.1533
5568	9.12
5616	13.34
5664	13.84
5712	15.6467
5760	12.8067
5808	11.6733
5856	12.7233
5904	10.9133
5952	12.4067
6000	14.0367
6048	16.19
6096	13.3967
6144	14.58
6192	12.39
6240	15.64
6288	14.53
6336	13.1433
6384	10.69
6432	14.1533
6480	13.3033
6528	13.03
6576	12.5367
6624	12.9967
6672	15.82
6720	15.7367
6768	16.7567
6816	14.1167
6864	13.79
6912	9.24
6960	8.1333
7008	10.2633
7056	11.6867
7104	13.6167
7152	12.8667
7200	10.6467
7248	12.06
7296	11.1767
7344	11.7233
7392	12.2667
7440	11.21
7488	13.6267
7536	11.3167
7584	11.0667
7632	12.2867
7680	10.2833
7728	8.3067
7776	10.65
7824	10.14
7872	12
7920	12.22
7968	10.2867
8016	11.56
8064	13.2633
8112	12.5967
8160	11.0967
8208	9.2733
8256	10.09
8304	12.68
8352	12.19
8400	11.94
8448	13.2067
8496	13.3067
8544	13.8167
8592	9.71
8640	11.44
8688	12.2733
8736	14.8233
8784	13.2567
8832	14.02
8880	12.66
8928	10.7567
8976	12.2667
9024	13.9233
9072	12.82
9120	12.74
9168	11.7067
9216	9.7533
9264	12.3767
9312	12.29
9360	13.9233
9408	14.1433
9456	9.4533
9504	11.47
9552	11.2667
9600	12.1367
9648	11.07
9696	12.3867
9744	9.3033
9792	11.4967
9840	15.2567
9888	11.7633
9936	10.1733
9984	11.8667
10032	11.48
10080	11.77
10128	12.1733
10176	11.5533
10224	10.0233
10272	11.9733
10320	14.5367
10368	13.01
10416	8.76
10464	13.0867
10512	12.44
10560	11.7167
10608	13.1
10656	11.99
10704	10.2067
10752	10.1367
10800	9.27
10848	8.52
10896	10.6733
10944	10.8533
10992	7.9333
11040	12.5133
11088	11.3233
11136	10.73
11184	11.1867
11232	9.8767
11280	7.99
11328	12.5067
11376	9
11424	10.75
11472	13.9
11520	10.8433
11568	13.09
11616	11.7767
11664	9.3867
11712	12.01
11760	12.6167
11808	8.0133
11856	9.3433
11904	10.2333
11952	10.1867
12000	9.8467
12048	11.18
12096	13.15
12144	9.92
12192	10.7867
12240	10.44
12288	9.63
12336	11.7733
12384	13.36
12432	10.1133
12480	9.0467
12528	10.52
12576	9.8533
12624	11.58
12672	11.8967
12720	10.5967
12768	12.1567
12816	11.2633
12864	12.3333
12912	12.9467
12960	10.8633
13008	11.56
13056	11.4433
13104	12.75
13152	10.9867
13200	13.86
13248	12.9433
13296	11.1567
13344	12.2467
13392	11.27
13440	13.9433
13488	12.8433
13536	11.1633
13584	10.0433
13632	10.6433
13680	12.1433
13728	13.4533
13776	11.5267
13824	12.1067
13872	12.2167
13920	9.9367
13968	11.7233
14016	12.32
14064	10.46
14112	13.8267
14160	12.9267
14208	11.5933
14256	10.5567
14304	12.1333
14352	12.5067
14400	11.2567
14448	11.95
14496	11.7067
14544	10.9633
14592	9.5533
14640	9.7833
14688	12.6267
14736	10.4733
14784	8.9967
14832	10.58
14880	10.37
14928	9.7133
14976	12.83
15024	11.64
15072	11.1767
15120	11.1433
15168	12.8233
15216	13.5167
15264	13.3267
15312	10.1267
15360	9.44
15408	12.0533
15456	12.72
15504	11.31
15552	10.79
15600	11.8767
15648	9.1767
15696	10.4333
15744	11.2933
15792	12.5167
15840	12.79
15888	9.45
15936	10.0467
15984	13.1433
16032	14.6067
16080	8.9333
16128	12.35
16176	12.2667
16224	11.04
16272	11.6233
16320	12.2667
16368	8.9367
16416	14.72
16464	10.2567
16512	9.9233
16560	10.3467
16608	12.5133
16656	12.27
16704	12.58
16752	9.8633
16800	10.9933
16848	12.7333
16896	11.13
16944	11.59
16992	11.4867
17040	8.6633
17088	11.9467
17136	11.9767
17184	12.04
17232	11.9333
17280	12.7633
17328	10.74
17376	10.33
17424	13.08
17472	11.9067
17520	12.7533
17568	12.17
17616	12.78
17664	12.2867
17712	11.2933
17760	11.97
17808	11.3833
17856	11.4833
17904	13.31
17952	11.81
18000	11.3233
18048	12.6133
18096	11.3967
18144	12.4133
18192	11.0733
18240	12.42
18288	12.5233
18336	10.9367
18384	12.3233
18432	11.2567
18480	12.2733
18528	11.5
18576	11.2333
18624	10.0233
18672	12.66
18720	12.2267
18768	13.0833
18816	9.9933
18864	12.4867
18912	11.9067
18960	12.3033
19008	14.16
19056	12.2633
19104	11.0067
19152	10.1667
19200	10.2367
19248	8.72
19296	12.4967
19344	12.8233
19392	8.22
19440	13.7233
19488	11.0767
19536	11.2733
19584	11.8767
19632	13.9267
19680	11.3867
19728	12.3833
19776	10.0733
19824	13.77
19872	11.8233
19920	13.2567
19968	12.0967
20016	12.48
20064	9.9967
20112	12.08
20160	9.3833
20208	9.8567
20256	10.6967
20304	11.9367
20352	11.7933
20400	10.8533
20448	10.9233
20496	12.82
20544	9.87
20592	10.5267
20640	14.48
20688	12.15
20736	11.0667
20784	12.2567
20832	9.4067
20880	8.1233
20928	11.67
20976	10.6
21024	12.31
21072	7.3533
21120	10.97
21168	10.6767
21216	13.37
21264	10.9733
21312	12.1467
21360	9.0067
21408	11.82
21456	10.2067
21504	13.7167
21552	13.3133
21600	13.2233
21648	10.6533
21696	9.2167
21744	10.5433
21792	13.9133
21840	13.1667
21888	10.7433
21936	11.3633
21984	9.02
22032	10.67
22080	13.0567
22128	11.9333
22176	11.0033
22224	15.3
22272	10.5067
22320	13.1533
22368	10.04
22416	11.1567
22464	10.9467
22512	10.9967
22560	9.2167
22608	9.14
22656	14.4633
22704	9.3567
22752	6.0733
22800	10.3967
22848	10.5833
22896	10.46
22944	12.32
22992	12.5067
23040	10.2
23088	10.58
23136	11.7133
23184	12.1067
23232	10.45
23280	11.3033
23328	8.9
23376	8.6333
23424	11.1467
23472	9.8467
23520	12.1033
23568	9.2
23616	9.9733
23664	10.7667
23712	10.64
23760	11.7267
23808	10.4967
23856	9.8033
23904	10.4867
23952	11.5633
24000	9.63
24048	7.0133
24096	7.81
24144	10.79
24192	10.66
