Path difference [nm]	Intensity [a.u.]
-21264	25.69
-21216	25.7133
-21168	25.73
-21120	25.6867
-21072	25.6867
-21024	25.7467
-20976	25.78
-20928	25.7633
-20880	25.7333
-20832	25.7033
-20784	25.7133
-20736	25.7267
-20688	25.7367
-20640	25.6933
-20592	25.7233
-20544	25.64
-20496	25.68
-20448	25.7067
-20400	25.7033
-20352	25.78
-20304	25.7233
-20256	25.7667
-20208	25.69
-20160	25.7367
-20112	25.7467
-20064	25.7733
-20016	25.8367
-19968	25.7733
-19920	25.7667
-19872	25.7367
-19824	25.75
-19776	25.6967
-19728	25.7033
-19680	25.6933
-19632	25.75
-19584	25.6667
-19536	25.69
-19488	25.7367
-19440	25.72
-19392	25.7033
-19344	25.7167
-19296	25.68
-19248	25.7067
-19200	25.73
-19152	25.7233
-19104	25.79
-19056	25.7133
-19008	25.72
-18960	25.69
-18912	25.72
-18864	25.6967
-18816	25.6933
-18768	25.6667
-18720	25.6967
-18672	25.66
-18624	25.6933
-18576	25.71
-18528	25.6933
-18480	25.76
-18432	25.7833
-18384	25.7433
-18336	25.7733
-18288	25.7
-18240	25.7767
-18192	25.8
-18144	25.7433
-18096	25.6867
-18048	25.6333
-18000	25.7267
-17952	25.7133
-17904	25.71
-17856	25.75
-17808	25.74
-17760	25.7533
-17712	25.7867
-17664	25.74
-17616	25.8267
-17568	25.78
-17520	25.7267
-17472	25.71
-17424	25.7667
-17376	25.6967
-17328	25.7767
-17280	25.7533
-17232	25.72
-17184	25.7633
-17136	25.75
-17088	25.6433
-17040	25.6467
-16992	25.6733
-16944	25.7567
-16896	25.75
-16848	25.76
-16800	25.7133
-16752	25.7233
-16704	25.79
-16656	25.76
-16608	25.84
-16560	25.7633
-16512	25.7233
-16464	25.74
-16416	25.7567
-16368	25.7267
-16320	25.7067
-16272	25.67
-16224	25.6867
-16176	25.6533
-16128	25.68
-16080	25.7167
-16032	25.7233
-15984	25.7467
-15936	25.7067
-15888	25.7467
-15840	25.73
-15792	25.8267
-15744	25.8
-15696	25.75
-15648	25.7067
-15600	25.7333
-15552	25.6833
-15504	25.69
-15456	25.6867
-15408	25.6833
-15360	25.6667
-15312	25.7133
-15264	25.6867
-15216	25.78
-15168	25.7733
-15120	25.8467
-15072	25.7767
-15024	25.7133
-14976	25.7733
-14928	25.7733
-14880	25.78
-14832	25.75
-14784	25.6967
-14736	25.6667
-14688	25.6533
-14640	25.6767
-14592	25.7267
-14544	25.75
-14496	25.6933
-14448	25.7333
-14400	25.8067
-14352	25.7567
-14304	25.7867
-14256	25.8133
-14208	25.7133
-14160	25.7567
-14112	25.79
-14064	25.7433
-14016	25.7567
-13968	25.6467
-13920	25.6733
-13872	25.6633
-13824	25.76
-13776	25.73
-13728	25.7367
-13680	25.8
-13632	25.7633
-13584	25.84
-13536	25.85
-13488	25.7333
-13440	25.7033
-13392	25.7333
-13344	25.7033
-13296	25.7133
-13248	25.68
-13200	25.7133
-13152	25.68
-13104	25.6967
-13056	25.7133
-13008	25.79
-12960	25.79
-12912	25.69
-12864	25.7867
-12816	25.8067
-12768	25.77
-12720	25.74
-12672	25.7467
-12624	25.6967
-12576	25.76
-12528	25.7567
-12480	25.7633
-12432	25.7833
-12384	25.6967
-12336	25.64
-12288	25.65
-12240	25.7133
-12192	25.7933
-12144	25.7033
-12096	25.7033
-12048	25.7433
-12000	25.6833
-11952	25.77
-11904	25.7733
-11856	25.76
-11808	25.8
-11760	25.7467
-11712	25.71
-11664	25.6833
-11616	25.68
-11568	25.7533
-11520	25.7733
-11472	25.72
-11424	25.6967
-11376	25.76
-11328	25.7067
-11280	25.74
-11232	25.74
-11184	25.7367
-11136	25.82
-11088	25.8533
-11040	25.7333
-10992	25.7367
-10944	25.7633
-10896	25.7667
-10848	25.7367
-10800	25.7333
-10752	25.7167
-10704	25.69
-10656	25.74
-10608	25.7267
-10560	25.7233
-10512	25.75
-10464	25.76
-10416	25.8533
-10368	25.7667
-10320	25.76
-10272	25.8133
-10224	25.7
-10176	25.7867
-10128	25.7367
-10080	25.73
-10032	25.7767
-9984	25.7333
-9936	25.7167
-9888	25.73
-9840	25.7533
-9792	25.7367
-9744	25.79
-9696	25.7633
-9648	25.8233
-9600	25.7867
-9552	25.75
-9504	25.7333
-9456	25.7
-9408	25.7567
-9360	25.7333
-9312	25.7033
-9264	25.7533
-9216	25.76
-9168	25.7167
-9120	25.7733
-9072	25.7667
-9024	25.7833
-8976	25.88
-8928	25.8567
-8880	25.7633
-8832	25.7233
-8784	25.69
-8736	25.7067
-8688	25.7167
-8640	25.7067
-8592	25.7267
-8544	25.6933
-8496	25.7433
-8448	25.7533
-8400	25.7467
-8352	25.81
-8304	25.82
-8256	25.8567
-8208	25.8167
-8160	25.7433
-8112	25.7633
-8064	25.7767
-8016	25.7867
-7968	25.72
-7920	25.74
-7872	25.6967
-7824	25.72
-7776	25.72
-7728	25.7867
-7680	25.8
-7632	25.8267
-7584	25.8067
-7536	25.7333
-7488	25.7533
-7440	25.7967
-7392	25.7067
-7344	25.7233
-7296	25.6867
-7248	25.68
-7200	25.7367
-7152	25.7867
-7104	25.7967
-7056	25.7433
-7008	25.9
-6960	25.83
-6912	25.8367
-6864	25.8133
-6816	25.84
-6768	25.79
-6720	25.7733
-6672	25.7667
-6624	25.7133
-6576	25.7233
-6528	25.7967
-6480	25.7333
-6432	25.8133
-6384	25.7267
-6336	25.8733
-6288	25.8533
-6240	25.75
-6192	25.8067
-6144	25.7367
-6096	25.8467
-6048	25.65
-6000	25.6733
-5952	25.7867
-5904	25.8
-5856	25.79
-5808	25.7533
-5760	25.8
-5712	25.87
-5664	25.9
-5616	25.79
-5568	25.79
-5520	25.78
-5472	25.8167
-5424	25.7233
-5376	25.7067
-5328	25.7
-5280	25.73
-5232	25.7733
-5184	25.78
-5136	25.81
-5088	25.8633
-5040	25.8133
-4992	25.7733
-4944	25.7733
-4896	25.7533
-4848	25.82
-4800	25.75
-4752	25.7367
-4704	25.7433
-4656	25.7333
-4608	25.7733
-4560	25.83
-4512	25.82
-4464	25.7833
-4416	25.8467
-4368	25.86
-4320	25.7833
-4272	25.83
-4224	25.8
-4176	25.76
-4128	25.7067
-4080	25.7967
-4032	25.7567
-3984	25.8133
-3936	25.7767
-3888	25.8167
-3840	25.8133
-3792	25.87
-3744	25.8333
-3696	25.7767
-3648	25.7633
-3600	25.78
-3552	25.7733
-3504	25.6833
-3456	25.7967
-3408	25.8033
-3360	25.8333
-3312	25.8133
-3264	25.8133
-3216	25.83
-3168	25.8933
-3120	25.8067
-3072	25.81
-3024	25.82
-2976	25.8
-2928	25.7567
-2880	25.7433
-2832	25.7467
-2784	25.77
-2736	25.7667
-2688	25.8
-2640	25.7867
-2592	25.84
-2544	25.8967
-2496	25.86
-2448	25.8167
-2400	25.8067
-2352	25.85
-2304	25.7233
-2256	25.6667
-2208	25.7533
-2160	25.76
-2112	25.8233
-2064	25.8
-2016	25.79
-1968	25.8067
-1920	25.8233
-1872	25.8333
-1824	25.8267
-1776	25.7967
-1728	25.8267
-1680	25.7833
-1632	25.7767
-1584	25.7533
-1536	25.7933
-1488	25.7967
-1440	25.8267
-1392	25.86
-1344	25.8667
-1296	25.8733
-1248	25.8567
-1200	25.86
-1152	25.87
-1104	25.8533
-1056	25.7967
-1008	25.7733
-960	25.78
-912	25.7433
-864	25.7967
-816	25.8467
-768	25.8567
-720	25.7533
-672	25.8267
-624	25.8267
-576	25.8767
-528	25.8533
-480	25.8767
-432	25.8333
-384	25.7633
-336	25.76
-288	25.7667
-240	25.81
-192	25.8567
-144	25.8467
-96	25.8333
-48	25.86
0	25.86
48	25.8
96	25.82
144	25.8033
192	25.8333
240	25.7767
288	25.76
336	25.84
384	25.8267
432	25.81
480	25.8267
528	25.8333
576	25.8333
624	25.85
672	25.88
720	25.7967
768	25.8567
816	25.8167
864	25.8
912	25.8367
960	25.8433
1008	25.7867
1056	25.8133
1104	25.8367
1152	25.8733
1200	25.8767
1248	25.8833
1296	25.9367
1344	25.92
1392	25.87
1440	25.8533
1488	25.8067
1536	25.86
1584	25.8233
1632	25.81
1680	25.81
1728	25.85
1776	25.8667
1824	25.84
1872	25.8667
1920	25.8367
1968	25.8933
2016	25.94
2064	25.89
2112	25.8433
2160	25.8767
2208	25.87
2256	25.8167
2304	25.83
2352	25.7433
2400	25.8033
2448	25.8333
2496	25.9267
2544	25.8733
2592	25.8667
2640	25.8767
2688	25.92
2736	25.9533
2784	25.8967
2832	25.9333
2880	25.8367
2928	25.8533
2976	25.8633
3024	25.82
3072	25.8533
3120	25.84
3168	25.8467
3216	25.8633
3264	25.9167
3312	25.96
3360	25.9233
3408	25.87
3456	25.8467
3504	25.8467
3552	25.84
3600	25.8067
3648	25.85
3696	25.86
3744	25.8833
3792	25.8667
3840	25.8567
3888	25.8467
3936	25.8633
3984	25.8633
4032	25.89
4080	25.8433
4128	25.8533
4176	25.8167
4224	25.7967
4272	25.8133
4320	25.8867
4368	25.8533
4416	25.8533
4464	25.93
4512	25.9067
4560	25.76
4608	25.9033
4656	25.88
4704	25.8333
4752	25.8767
4800	25.8433
4848	25.8267
4896	25.7633
4944	25.81
4992	25.8733
5040	25.8933
5088	25.92
5136	25.9167
5184	25.8467
5232	25.94
5280	25.9133
5328	25.86
5376	25.8967
5424	25.87
5472	25.8733
5520	25.9033
5568	25.91
5616	25.8167
5664	25.9667
5712	25.8233
5760	25.89
5808	25.8667
5856	25.9033
5904	25.8667
5952	25.8267
6000	25.8733
6048	25.8433
6096	25.8367
6144	25.8333
6192	25.82
6240	25.8633
6288	25.9367
6336	25.8833
6384	25.9067
6432	25.92
6480	25.89
6528	25.8967
6576	25.9167
6624	25.9233
6672	25.9033
6720	25.8433
6768	25.8033
6816	25.8967
6864	25.8633
6912	25.9467
6960	25.92
7008	25.9333
7056	25.9467
7104	25.9433
7152	25.9033
7200	25.8933
7248	26.0033
7296	25.9333
7344	25.85
7392	25.8967
7440	25.8833
7488	25.9333
7536	25.9633
7584	25.94
7632	25.9667
7680	26
7728	25.9533
7776	25.8833
7824	25.89
7872	25.9033
7920	25.8567
7968	25.91
8016	25.9433
8064	25.8867
8112	25.8933
8160	25.9433
8208	25.9567
8256	26.0333
8304	26.02
8352	25.9
8400	25.9267
8448	25.9433
8496	25.9067
8544	25.9367
8592	25.9367
8640	25.8967
8688	25.9367
8736	25.9733
8784	25.9333
8832	25.93
8880	26.03
8928	25.9433
8976	25.89
9024	25.9033
9072	25.9333
9120	25.9567
9168	25.9267
9216	25.95
9264	25.8733
9312	25.8967
9360	25.9567
9408	25.8933
9456	25.98
9504	25.89
9552	26.0233
9600	25.9967
9648	25.9967
9696	25.8967
9744	25.98
9792	25.8767
9840	25.86
9888	25.95
9936	25.9533
9984	25.9167
10032	25.9467
10080	25.9933
10128	26.01
10176	26.09
10224	26.05
10272	25.9833
10320	25.9567
10368	25.91
10416	25.96
10464	25.8367
10512	25.8633
10560	25.9233
10608	25.87
10656	25.91
10704	26
10752	26.0233
10800	25.9467
10848	25.9333
10896	25.9733
10944	25.9367
10992	25.95
11040	25.9767
11088	25.8667
11136	25.9533
11184	25.95
11232	26.0067
11280	25.92
11328	26.0367
11376	25.9833
11424	26.0167
11472	25.9433
11520	25.98
11568	25.9767
11616	25.97
11664	25.8533
11712	25.89
11760	25.96
11808	25.98
11856	25.9567
11904	25.9467
11952	26.0267
12000	26.07
12048	25.9133
12096	25.9967
12144	25.8867
12192	25.9433
12240	25.8833
12288	25.8633
12336	25.9433
12384	25.9367
12432	25.9733
12480	25.9667
12528	25.9833
12576	26.0367
12624	26.03
12672	26.0033
12720	25.9333
12768	25.9967
12816	25.9933
12864	25.95
12912	25.9067
12960	25.9067
13008	25.9233
13056	25.96
13104	26.0067
13152	26.02
13200	26.04
13248	26.0667
13296	26.0233
13344	26.0233
13392	25.9433
13440	25.9467
13488	25.9433
13536	25.9033
13584	25.94
13632	25.9567
13680	26.03
13728	25.9867
13776	26.02
13824	26.04
13872	26.0533
13920	25.9433
13968	25.9933
14016	26.04
14064	25.9467
14112	25.93
14160	25.91
14208	25.9667
14256	25.9567
14304	25.9433
14352	26.0267
14400	26.0033
14448	25.9667
14496	25.98
14544	26.1033
14592	26.0333
14640	26.01
14688	25.9233
14736	25.9733
14784	26.0533
14832	25.8867
14880	25.9767
14928	25.96
14976	25.96
15024	25.9833
15072	26.01
15120	26.0567
15168	26.09
15216	26.0633
15264	25.9767
15312	26.0067
15360	26.0167
15408	26.0033
15456	25.97
15504	25.9367
15552	25.97
15600	25.9267
15648	26.0167
15696	26.0667
15744	26.0267
15792	26.0433
15840	26.0367
15888	26.0567
15936	25.9867
15984	26.0167
16032	26.0067
16080	25.96
16128	25.9133
16176	25.9233
16224	26.0133
16272	26.0267
16320	25.9333
16368	26
16416	25.99
16464	26.09
16512	26.0267
16560	25.9567
16608	26.0033
16656	26.0367
16704	26.03
16752	26.0067
16800	25.9333
16848	25.96
16896	26
16944	26.02
16992	26.06
17040	26.1
17088	26.0867
17136	26.06
17184	25.9733
17232	25.98
17280	26.0467
17328	25.9733
17376	25.9267
17424	25.9233
17472	26.0167
17520	25.9767
17568	26.01
17616	25.9833
17664	25.9933
17712	26.0667
17760	26.0767
17808	25.99
17856	26.06
17904	25.9967
17952	26.0767
18000	25.98
18048	25.94
18096	26.0133
18144	25.9567
18192	26.01
18240	25.9467
18288	26.05
18336	26.04
18384	26.0533
18432	26.0733
18480	26.0067
18528	25.9633
18576	25.9467
18624	26.0133
18672	25.9833
18720	25.9133
18768	26.05
18816	25.9933
18864	26.01
18912	26.0567
18960	26.0433
19008	26.1
19056	25.9967
19104	26.01
19152	25.9833
19200	25.9733
19248	25.9833
19296	25.93
19344	25.9767
19392	25.99
19440	25.9833
19488	25.97
19536	25.9933
19584	26.0267
19632	26.0733
19680	26.06
19728	26.0033
19776	26.0367
19824	26.0033
19872	25.95
19920	25.95
19968	25.97
20016	25.9867
20064	26.0067
20112	25.99
20160	25.9933
20208	25.9767
20256	26.05
20304	26.02
20352	25.9833
20400	25.9967
20448	26.0333
20496	26.0167
20544	25.92
20592	25.97
20640	25.9633
20688	26.0333
20736	25.9833
20784	26.0067
20832	26.05
20880	26.0167
20928	26.0233
20976	26.0167
21024	25.9967
21072	25.99
21120	26
21168	25.9167
21216	25.9533
